"Wavelength (A)" Specta "Best Fitting Model" "Non-parm Extinction Curve" "Non-param Adjusted Continuum"
4051.13 0.611104 0.289534 0.0 0.868656
4051.46 0.613508 0.329918 0.0 0.86828
4051.79 0.61469 0.371024 0.0 0.867904
4052.13 0.614383 0.409886 0.0 0.867528
4052.46 0.61292 0.444197 0.0 0.867152
4052.79 0.610686 0.473436 0.0 0.866777
4053.12 0.607912 0.498757 0.0 0.866401
4053.45 0.6047 0.521576 0.0 0.866026
4053.78 0.601153 0.542084 0.0 0.865652
4054.12 0.597408 0.559168 0.0 0.865278
4054.45 0.593612 0.571538 0.0 0.864904
4054.78 0.590075 0.578863 0.0 0.864531
4055.11 0.587528 0.582152 0.0 0.864158
4055.44 0.586742 0.583073 0.0 0.863787
4055.77 0.587443 0.582887 0.0 0.863416
4056.11 0.588108 0.582143 0.0 0.863045
4056.44 0.587286 0.580938 0.0 0.862676
4056.77 0.584962 0.57927 0.0 0.862307
4057.1 0.581934 0.577347 0.0 0.86194
4057.43 0.578898 0.575588 0.0 0.861573
4057.77 0.576135 0.57433 0.0 0.861208
4058.1 0.573819 0.573713 0.0 0.860843
4058.43 0.57216 0.573727 0.0 0.86048
4058.76 0.571417 0.574297 0.0 0.860118
4059.09 0.571816 0.575388 0.0 0.859757
4059.43 0.572945 0.576915 4.64043 0.859398
4059.76 0.573875 0.578581 4.6441 0.85904
4060.09 0.573799 0.579387 4.65527 0.858684
4060.42 0.572687 0.578798 4.66756 0.858329
4060.76 0.570796 0.576933 4.6805 0.857975
4061.09 0.568455 0.573987 4.6965 0.857624
4061.42 0.566181 0.570102 4.71258 0.857274
4061.75 0.564493 0.565473 4.72361 0.856925
4062.08 0.563073 0.560382 4.72857 0.856579
4062.42 0.56068 0.555115 4.73354 0.856234
4062.75 0.556274 0.549865 4.76778 0.855891
4063.08 0.551037 0.544846 4.81237 0.855551
4063.41 0.547297 0.540351 4.85589 0.855212
4063.75 0.546573 0.536679 4.86063 0.854875
4064.08 0.547483 0.534094 4.86537 0.854541
4064.41 0.548019 0.532859 4.8722 0.854208
4064.74 0.547189 0.532617 4.88318 0.853878
4065.08 0.545561 0.533774 4.89421 0.85355
4065.41 0.543843 0.536294 4.89859 0.853225
4065.74 0.542773 0.540073 4.89904 0.852902
4066.07 0.543115 0.544941 4.89949 0.852581
4066.41 0.545501 0.550666 4.87324 0.852263
4066.74 0.549887 0.556975 4.845 0.851948
4067.07 0.55602 0.563563 4.81458 0.851635
4067.41 0.563376 0.570106 4.77587 0.851325
4067.74 0.570866 0.576287 4.73762 0.851018
4068.07 0.577345 0.581816 4.70553 0.850713
4068.4 0.5821 0.586442 4.67911 0.850411
4068.74 0.584833 0.589972 4.65291 0.850113
4069.07 0.585382 0.592292 4.64321 0.849817
4069.4 0.584458 0.593384 4.63736 0.849524
4069.74 0.583151 0.593329 4.63311 0.849235
4070.07 0.582343 0.592296 4.64212 0.848948
4070.4 0.582296 0.590522 4.65116 0.848665
4070.73 0.583154 0.588284 4.64956 0.848385
4071.07 0.58468 0.585862 4.63232 0.848108
4071.4 0.586155 0.583504 4.61517 0.847835
4071.73 0.58688 0.581411 4.60627 0.847565
4072.07 0.586732 0.579716 4.60085 0.847298
4072.4 0.585924 0.578479 4.59544 0.847035
4072.73 0.584664 0.577671 4.60048 0.846776
4073.07 0.583112 0.577191 4.60554 0.84652
4073.4 0.58142 0.576881 4.61057 0.846268
4073.73 0.579808 0.576552 4.61556 0.84602
4074.07 0.578609 0.576013 4.62055 0.845776
4074.4 0.578126 0.575108 4.62504 0.845535
4074.73 0.578071 0.573739 4.62919 0.845299
4075.07 0.577695 0.571877 4.63335 0.845066
4075.4 0.576326 0.569558 4.65284 0.844838
4075.73 0.573761 0.566897 4.67417 0.844613
4076.07 0.569958 0.564075 4.69849 0.844393
4076.4 0.565303 0.561331 4.73439 0.844177
4076.73 0.561136 0.558946 4.77071 0.843965
4077.07 0.558882 0.55722 4.78916 0.843758
4077.4 0.559045 0.556438 4.78958 0.843555
4077.73 0.561204 0.556833 4.79001 0.843356
4078.07 0.564875 0.558561 4.76056 0.843162
4078.4 0.569388 0.561681 4.72423 0.842972
4078.74 0.573988 0.566151 4.68915 0.842787
4079.07 0.578199 0.571844 4.66139 0.842607
4079.4 0.582345 0.578554 4.63387 0.842432
4079.74 0.58689 0.586018 4.60054 0.842261
4080.07 0.592109 0.593926 4.55902 0.842095
4080.4 0.598038 0.60194 4.51805 0.841934
4080.74 0.60466 0.609706 4.47307 0.841777
4081.07 0.611599 0.616879 4.42696 0.841626
4081.41 0.618273 0.623152 4.38191 0.84148
4081.74 0.62415 0.628292 4.35581 0.841339
4082.07 0.62888 0.632173 4.32993 0.841203
4082.41 0.632167 0.634797 4.30949 0.841073
4082.74 0.63413 0.63629 4.29999 0.840948
4083.08 0.635552 0.63688 4.29053 0.840828
4083.41 0.63725 0.636864 4.28017 0.840713
4083.74 0.639712 0.636559 4.26932 0.840604
4084.08 0.643185 0.636267 4.25851 0.8405
4084.41 0.647625 0.636257 4.24614 0.840402
4084.75 0.651573 0.636749 4.23372 0.84031
4085.08 0.653151 0.637915 4.2275 0.840223
4085.42 0.651826 0.639872 4.24048 0.840142
4085.75 0.649721 0.642694 4.25351 0.840067
4086.08 0.649185 0.646391 4.25153 0.839997
4086.42 0.650972 0.650891 4.23733 0.839934
4086.75 0.654435 0.656037 4.22319 0.839876
4087.09 0.658913 0.661597 4.20149 0.839825
4087.42 0.663961 0.66729 4.1787 0.839779
4087.76 0.669215 0.672813 4.15809 0.83974
4088.09 0.674203 0.677887 4.14747 0.839707
4088.42 0.67819 0.682293 4.13688 0.83968
4088.76 0.680432 0.685881 4.13462 0.839659
4089.09 0.680999 0.688559 4.14148 0.839645
4089.43 0.680822 0.690278 4.14836 0.839637
4089.76 0.680772 0.691024 4.15857 0.839636
4090.1 0.680941 0.69081 4.16972 0.839641
4090.43 0.681055 0.689683 4.18113 0.839652
4090.77 0.680606 0.687726 4.19458 0.839671
4091.1 0.67839 0.685064 4.20809 0.839696
4091.44 0.673121 0.681841 4.23038 0.839727
4091.77 0.665351 0.678196 4.26561 0.839766
4092.11 0.657966 0.674241 4.3013 0.839811
4092.44 0.653681 0.670048 4.31846 0.839864
4092.78 0.652072 0.665652 4.32832 0.839923
4093.11 0.650963 0.661046 4.3386 0.839989
4093.45 0.64863 0.65621 4.36017 0.840063
4093.78 0.64506 0.651113 4.38191 0.840143
4094.12 0.640631 0.645729 4.4084 0.840231
4094.45 0.635596 0.640054 4.44394 0.840326
4094.79 0.630018 0.634123 4.47992 0.840428
4095.12 0.623954 0.628013 4.51848 0.840537
4095.46 0.617521 0.621818 4.55868 0.840653
4095.79 0.610877 0.61562 4.59942 0.840776
4096.13 0.604211 0.609472 4.63527 0.840905
4096.46 0.597834 0.603382 4.67139 0.841041
4096.8 0.59209 0.59732 4.70623 0.841184
4097.13 0.587133 0.591243 4.73718 0.841333
4097.47 0.582776 0.585118 4.76845 0.841489
4097.8 0.578783 0.578936 4.80255 0.84165
4098.14 0.574673 0.5727 4.83872 0.841818
4098.47 0.569777 0.566433 4.8753 0.841992
4098.81 0.563569 0.560164 4.92763 0.842172
4099.14 0.556279 0.553935 4.98221 0.842358
4099.48 0.548379 0.547801 5.03697 0.842549
4099.81 0.540615 0.541853 5.09018 0.842746
4100.15 0.534285 0.536221 5.14425 0.842949
4100.48 0.530675 0.531085 5.17785 0.843157
4100.82 0.529668 0.526662 5.19434 0.84337
4101.16 0.529912 0.523186 5.2109 0.843589
4101.49 0.530198 0.52088 5.22128 0.843813
4101.83 0.530393 0.519922 5.23074 0.844042
4102.16 0.530762 0.520422 5.23701 0.844276
4102.5 0.531585 0.522418 5.22935 0.844515
4102.83 0.533171 0.525881 5.2217 0.844758
4103.17 0.535828 0.530727 5.20178 0.845006
4103.51 0.53973 0.536826 5.17009 0.845259
4103.84 0.544916 0.544004 5.13867 0.845516
4104.18 0.551376 0.552045 5.09166 0.845778
4104.51 0.558801 0.560699 5.04197 0.846044
4104.85 0.566755 0.569686 4.99236 0.846314
4105.18 0.574779 0.578714 4.93969 0.846588
4105.52 0.58236 0.587498 4.88785 0.846866
4105.86 0.589 0.595778 4.84108 0.847148
4106.19 0.594867 0.60333 4.7998 0.847434
4106.53 0.600863 0.609969 4.75905 0.847723
4106.86 0.607773 0.61557 4.71428 0.848016
4107.2 0.615201 0.620059 4.66891 0.848313
4107.54 0.622201 0.623422 4.62575 0.848613
4107.87 0.628018 0.6257 4.59588 0.848916
4108.21 0.632458 0.626991 4.5663 0.849223
4108.54 0.635428 0.627435 4.54882 0.849532
4108.88 0.636921 0.627208 4.54704 0.849845
4109.22 0.637026 0.626513 4.54526 0.85016
4109.55 0.63587 0.625567 4.5563 0.850478
4109.89 0.633844 0.624583 4.57161 0.850799
4110.23 0.631474 0.623757 4.5867 0.851123
4110.56 0.629282 0.623253 4.59842 0.851449
4110.9 0.627771 0.623193 4.61019 0.851777
4111.23 0.627438 0.623649 4.61449 0.852108
4111.57 0.628524 0.624658 4.60759 0.852441
4111.91 0.630948 0.626228 4.6007 0.852776
4112.24 0.634574 0.628351 4.58249 0.853113
4112.58 0.638977 0.630999 4.56013 0.853452
4112.92 0.643571 0.634122 4.53828 0.853793
4113.25 0.647798 0.637631 4.52311 0.854136
4113.59 0.651187 0.641394 4.50802 0.85448
4113.93 0.653302 0.645241 4.50118 0.854826
4114.26 0.654314 0.64898 4.50791 0.855173
4114.6 0.655232 0.652429 4.51466 0.855521
4114.94 0.65699 0.655432 4.51011 0.855871
4115.27 0.659101 0.657859 4.50079 0.856222
4115.61 0.660247 0.659613 4.4921 0.856574
4115.95 0.659524 0.660622 4.50302 0.856927
4116.28 0.657594 0.660853 4.51399 0.85728
4116.62 0.655468 0.660313 4.52652 0.857635
4116.96 0.653741 0.659061 4.54185 0.85799
4117.29 0.652407 0.657206 4.55726 0.858345
4117.63 0.651377 0.654894 4.57163 0.858702
4117.97 0.650212 0.652283 4.58555 0.859058
4118.3 0.648258 0.649531 4.59953 0.859415
4118.64 0.645137 0.646787 4.61287 0.859771
4118.98 0.641555 0.644191 4.62628 0.860128
4119.32 0.63847 0.641876 4.63623 0.860485
4119.65 0.636652 0.63995 4.63949 0.860842
4119.99 0.636574 0.638487 4.64274 0.861198
4120.33 0.638588 0.637525 4.63294 0.861554
4120.66 0.641895 0.637067 4.61686 0.86191
4121.0 0.644969 0.637094 4.6009 0.862265
4121.34 0.646525 0.637578 4.59883 0.862619
4121.68 0.646267 0.638497 4.59676 0.862973
4122.01 0.644162 0.639828 4.59738 0.863326
4122.35 0.640964 0.641528 4.60338 0.863678
4122.69 0.638645 0.643526 4.60939 0.864029
4123.02 0.639115 0.645721 4.59934 0.864379
4123.36 0.642291 0.64799 4.58132 0.864727
4123.7 0.646804 0.65021 4.5634 0.865075
4124.04 0.651324 0.65227 4.55147 0.86542
4124.37 0.654772 0.654077 4.5396 0.865765
4124.71 0.656147 0.655547 4.53566 0.866108
4125.05 0.655219 0.656607 4.5477 0.866449
4125.39 0.652965 0.657197 4.55979 0.866788
4125.72 0.650416 0.657279 4.57877 0.867125
4126.06 0.647993 0.656831 4.60135 0.86746
4126.4 0.645718 0.655848 4.6241 0.867793
4126.74 0.643612 0.654343 4.6462 0.868124
4127.07 0.641705 0.652339 4.66846 0.868453
4127.41 0.640028 0.649861 4.68737 0.868779
4127.75 0.638474 0.64694 4.69935 0.869103
4128.09 0.636725 0.64363 4.71137 0.869424
4128.43 0.634461 0.639991 4.71976 0.869743
4128.76 0.631588 0.636065 4.72635 0.870058
4129.1 0.628155 0.631862 4.733 0.870371
4129.44 0.624272 0.627374 4.75636 0.870681
4129.78 0.620272 0.62261 4.7799 0.870988
4130.11 0.616544 0.617617 4.80382 0.871291
4130.45 0.613243 0.612502 4.82834 0.871591
4130.79 0.610173 0.607431 4.85305 0.871888
4131.13 0.607137 0.602597 4.87108 0.872182
4131.47 0.604285 0.598182 4.88592 0.872471
4131.8 0.60198 0.594336 4.90057 0.872758
4132.14 0.600617 0.591195 4.89743 0.87304
4132.48 0.600678 0.588901 4.8943 0.873318
4132.82 0.602655 0.5876 4.88295 0.873593
4133.16 0.60617 0.587427 4.85662 0.873863
4133.5 0.609565 0.588482 4.8305 0.874129
4133.83 0.611252 0.5908 4.82349 0.874391
4134.17 0.611511 0.594339 4.82498 0.874649
4134.51 0.61175 0.598997 4.82593 0.874902
4134.85 0.613185 0.604628 4.80942 0.875151
4135.19 0.616268 0.611055 4.79299 0.875395
4135.53 0.621271 0.618067 4.76672 0.875634
4135.86 0.628041 0.625425 4.72397 0.875868
4136.2 0.635837 0.632871 4.68178 0.876098
4136.54 0.643832 0.640148 4.64992 0.876322
4136.88 0.650847 0.647027 4.62233 0.876541
4137.22 0.655493 0.653326 4.59618 0.876755
4137.56 0.656939 0.6589 4.59232 0.876963
4137.89 0.656272 0.663609 4.58847 0.877167
4138.23 0.65499 0.667305 4.58621 0.877364
4138.57 0.65442 0.669821 4.58641 0.877557
4138.91 0.655664 0.670989 4.58661 0.877744
4139.25 0.65951 0.670668 4.58081 0.877926
4139.59 0.663982 0.668787 4.57286 0.878103
4139.93 0.665621 0.66536 4.5688 0.878275
4140.26 0.662099 0.660481 4.61136 0.878442
4140.6 0.654738 0.654305 4.65452 0.878603
4140.94 0.645569 0.64703 4.70942 0.87876
4141.28 0.636003 0.638883 4.78098 0.878912
4141.62 0.62669 0.63013 4.8542 0.879059
4141.96 0.6182 0.621082 4.91066 0.879201
4142.3 0.610832 0.612106 4.96234 0.879338
4142.64 0.604747 0.603604 5.01198 0.879471
4142.98 0.600014 0.595991 5.03848 0.879599
4143.31 0.596434 0.589642 5.06519 0.879722
4143.65 0.593757 0.584857 5.08345 0.879841
4143.99 0.591773 0.581819 5.09134 0.879955
4144.33 0.590311 0.580584 5.09924 0.880065
4144.67 0.589233 0.581088 5.09536 0.88017
4145.01 0.588634 0.583169 5.08851 0.880271
4145.35 0.588713 0.586594 5.07969 0.880367
4145.69 0.589686 0.591078 5.05928 0.88046
4146.03 0.591808 0.596303 5.03899 0.880548
4146.37 0.595325 0.601934 5.0145 0.880631
4146.71 0.600149 0.607637 4.98577 0.880711
4147.05 0.605844 0.61309 4.95727 0.880786
4147.38 0.611913 0.618013 4.92621 0.880858
4147.72 0.617572 0.622196 4.8949 0.880925
4148.06 0.621923 0.625509 4.86775 0.880989
4148.4 0.624449 0.627897 4.85759 0.881048
4148.74 0.625529 0.629366 4.84746 0.881104
4149.08 0.625663 0.629963 4.84479 0.881155
4149.42 0.625245 0.629776 4.84857 0.881203
4149.76 0.624574 0.628923 4.85236 0.881248
4150.1 0.623913 0.627547 4.85992 0.881288
4150.44 0.623343 0.625807 4.868 0.881325
4150.78 0.622882 0.623855 4.87578 0.881359
4151.12 0.622517 0.621811 4.88258 0.881388
4151.46 0.622173 0.619759 4.88938 0.881415
4151.8 0.621762 0.61775 4.89693 0.881438
4152.14 0.621086 0.615823 4.905 0.881457
4152.48 0.619862 0.614026 4.9131 0.881473
4152.82 0.61779 0.612404 4.93137 0.881486
4153.16 0.614509 0.610983 4.95047 0.881496
4153.5 0.609649 0.609761 4.97334 0.881502
4153.84 0.604011 0.608725 5.00561 0.881505
4154.18 0.60046 0.607881 5.0382 0.881505
4154.52 0.601781 0.607277 5.02857 0.881502
4154.86 0.607 0.60701 4.99509 0.881496
4155.2 0.612515 0.607203 4.96193 0.881487
4155.54 0.615488 0.607958 4.9555 0.881476
4155.88 0.616442 0.60932 4.94936 0.881461
4156.22 0.616762 0.611276 4.93957 0.881443
4156.56 0.617498 0.613782 4.92283 0.881423
4156.9 0.61919 0.616799 4.90617 0.8814
4157.24 0.622262 0.620304 4.88484 0.881374
4157.58 0.626351 0.624284 4.8616 0.881346
4157.92 0.630627 0.628715 4.83881 0.881315
4158.26 0.634455 0.633533 4.82168 0.881281
4158.6 0.637901 0.638632 4.80464 0.881245
4158.94 0.641183 0.64388 4.78548 0.881206
4159.28 0.644493 0.64915 4.7632 0.881166
4159.62 0.647996 0.654329 4.74107 0.881122
4159.96 0.651837 0.659326 4.7101 0.881077
4160.3 0.656007 0.66407 4.67662 0.881029
4160.64 0.660424 0.668491 4.64405 0.880979
4160.98 0.664949 0.672517 4.61599 0.880927
4161.32 0.669298 0.676073 4.58818 0.880872
4161.66 0.673155 0.679088 4.5706 0.880816
4162.0 0.676066 0.681499 4.56424 0.880758
4162.34 0.677433 0.683247 4.55789 0.880697
4162.68 0.676841 0.684281 4.56354 0.880635
4163.02 0.675172 0.684572 4.57167 0.880571
4163.36 0.67384 0.684115 4.57917 0.880505
4163.7 0.673699 0.68293 4.58388 0.880437
4164.05 0.674309 0.681061 4.58859 0.880367
4164.39 0.675018 0.678571 4.59739 0.880296
4164.73 0.674678 0.675549 4.60962 0.880223
4165.07 0.671698 0.672095 4.6219 0.880149
4165.41 0.665058 0.668333 4.6677 0.880073
4165.75 0.656865 0.664411 4.71781 0.879996
4166.09 0.650251 0.660498 4.75789 0.879917
4166.43 0.646872 0.656748 4.76799 0.879836
4166.77 0.64561 0.653282 4.77813 0.879755
4167.11 0.645093 0.65017 4.78409 0.879672
4167.45 0.644616 0.647439 4.78752 0.879587
4167.79 0.643959 0.645071 4.79095 0.879502
4168.14 0.642917 0.643009 4.80245 0.879415
4168.48 0.641309 0.641157 4.81412 0.879328
4168.82 0.638961 0.63938 4.82839 0.879239
4169.16 0.635867 0.637508 4.8476 0.879149
4169.5 0.63227 0.635363 4.86692 0.879058
4169.84 0.628428 0.632793 4.89055 0.878966
4170.18 0.624498 0.629702 4.91611 0.878874
4170.52 0.620584 0.626062 4.94222 0.87878
4170.86 0.616725 0.621908 4.97333 0.878686
4171.21 0.612755 0.617329 5.00473 0.878591
4171.55 0.608473 0.612452 5.03915 0.878495
4171.89 0.603823 0.607438 5.07753 0.878399
4172.23 0.598929 0.602473 5.11636 0.878302
4172.57 0.593992 0.597762 5.16585 0.878205
4172.91 0.589722 0.59351 5.21876 0.878107
4173.25 0.587062 0.589895 5.26257 0.878009
4173.6 0.586453 0.587056 5.25402 0.87791
4173.94 0.587079 0.58507 5.24548 0.877811
4174.28 0.587958 0.583955 5.23748 0.877711
4174.62 0.588722 0.58368 5.22996 0.877611
4174.96 0.589583 0.584178 5.22246 0.877511
4175.3 0.59075 0.585358 5.21572 0.877411
4175.64 0.592291 0.587114 5.20909 0.877311
4175.99 0.594223 0.589325 5.20219 0.877211
4176.33 0.59648 0.591866 5.19452 0.877111
4176.67 0.598829 0.594606 5.18686 0.87701
4177.01 0.601031 0.597424 5.17808 0.87691
4177.35 0.602962 0.600228 5.16861 0.87681
4177.7 0.604584 0.602964 5.15916 0.87671
4178.04 0.605882 0.605602 5.14752 0.87661
4178.38 0.606917 0.60812 5.13588 0.876511
4178.72 0.60778 0.61048 5.12214 0.876412
4179.06 0.608872 0.612631 5.10455 0.876313
4179.4 0.611054 0.614506 5.08705 0.876215
4179.75 0.615049 0.616065 5.06238 0.876117
4180.09 0.619892 0.617315 5.03511 0.876019
4180.43 0.623678 0.618322 5.01079 0.875922
4180.77 0.625097 0.619192 5.01452 0.875826
4181.11 0.624697 0.620045 5.01825 0.87573
4181.46 0.623381 0.620987 5.02113 0.875636
4181.8 0.622041 0.622084 5.02301 0.875541
4182.14 0.62156 0.623363 5.02488 0.875448
4182.48 0.622678 0.624807 5.01756 0.875355
4182.83 0.625166 0.62636 5.00835 0.875263
4183.17 0.628396 0.627937 4.99922 0.875172
4183.51 0.631689 0.629428 4.99037 0.875081
4183.85 0.634259 0.630714 4.98153 0.874992
4184.19 0.635351 0.631687 4.98268 0.874903
4184.54 0.634967 0.632271 4.99141 0.874814
4184.88 0.633744 0.63243 5.00016 0.874727
4185.22 0.632259 0.632167 5.02178 0.874641
4185.56 0.630705 0.631517 5.04437 0.874555
4185.91 0.62916 0.630537 5.06648 0.87447
4186.25 0.627715 0.629301 5.08732 0.874386
4186.59 0.626481 0.627901 5.10829 0.874303
4186.93 0.625582 0.626453 5.11702 0.874221
4187.28 0.62528 0.625098 5.12006 0.874139
4187.62 0.625921 0.623987 5.12188 0.874059
4187.96 0.62768 0.623264 5.1034 0.873979
4188.3 0.630158 0.623041 5.08501 0.8739
4188.65 0.632836 0.623384 5.06613 0.873822
4188.99 0.635214 0.624313 5.04656 0.873745
4189.33 0.636822 0.625825 5.02711 0.873669
4189.68 0.637275 0.627889 5.02126 0.873594
4190.02 0.636827 0.630451 5.0187 0.87352
4190.36 0.636011 0.633428 5.01824 0.873447
4190.7 0.635347 0.636698 5.02737 0.873375
4191.05 0.63532 0.640101 5.03654 0.873304
4191.39 0.636381 0.643448 5.0396 0.873234
4191.73 0.63844 0.646558 5.03774 0.873165
4192.08 0.640939 0.649264 5.03588 0.873096
4192.42 0.643378 0.651416 5.02286 0.873029
4192.76 0.64563 0.652868 5.00905 0.872963
4193.1 0.647681 0.653475 4.99735 0.872898
4193.45 0.649356 0.653099 4.99033 0.872834
4193.79 0.650209 0.65163 4.98332 0.872771
4194.13 0.649792 0.649021 4.99028 0.872709
4194.48 0.647881 0.645308 5.00376 0.872648
4194.82 0.644392 0.640612 5.01857 0.872589
4195.16 0.639378 0.635109 5.05329 0.87253
4195.51 0.63335 0.62901 5.08838 0.872473
4195.85 0.62691 0.62253 5.12797 0.872416
4196.19 0.620589 0.615877 5.1734 0.872361
4196.54 0.614841 0.609243 5.21943 0.872307
4196.88 0.610016 0.602813 5.25907 0.872254
4197.22 0.605781 0.596762 5.29759 0.872202
4197.57 0.601514 0.591249 5.33446 0.872151
4197.91 0.596932 0.586399 5.36314 0.872102
4198.25 0.59251 0.582306 5.39205 0.872054
4198.6 0.588819 0.579021 5.42 0.872006
4198.94 0.586189 0.576556 5.44727 0.871961
4199.28 0.584752 0.574889 5.47475 0.871916
4199.63 0.584487 0.573979 5.47891 0.871872
4199.97 0.584672 0.573788 5.48199 0.87183
4200.32 0.5844 0.574279 5.48711 0.871789
4200.66 0.583415 0.575426 5.49623 0.87175
4201.0 0.582465 0.57721 5.50538 0.871711
4201.35 0.582372 0.579616 5.51089 0.871674
4201.69 0.583844 0.582614 5.51496 0.871638
4202.03 0.587523 0.586164 5.51531 0.871603
4202.38 0.593424 0.590223 5.4822 0.87157
4202.72 0.599688 0.594759 5.44939 0.871538
4203.07 0.604184 0.599742 5.42323 0.871507
4203.41 0.606554 0.605147 5.40405 0.871478
4203.75 0.608297 0.610941 5.38496 0.87145
4204.1 0.610893 0.617074 5.34705 0.871424
4204.44 0.615146 0.62347 5.30663 0.871398
4204.79 0.621604 0.630036 5.25964 0.871374
4205.13 0.630299 0.636663 5.19244 0.871352
4205.47 0.640254 0.643234 5.12653 0.871331
4205.82 0.650367 0.649617 5.07358 0.871311
4206.16 0.659433 0.655679 5.02816 0.871293
