"Wavelength (A)" Specta "Best Fitting Model" "Non-parm Extinction Curve" "Non-param Adjusted Continuum"
4051.13 0.592107 0.277411 0.0 0.88704
4051.46 0.593359 0.301777 0.0 0.886402
4051.79 0.594171 0.32747 0.0 0.885764
4052.13 0.594434 0.352665 0.0 0.885126
4052.46 0.594244 0.375456 0.0 0.884488
4052.79 0.593722 0.395305 0.0 0.883851
4053.12 0.593128 0.413358 0.0 0.883214
4053.45 0.592835 0.431401 0.0 0.882577
4053.78 0.593085 0.450295 0.0 0.881941
4054.12 0.593281 0.469248 0.0 0.881305
4054.45 0.592505 0.486638 0.0 0.88067
4054.78 0.590292 0.501445 0.0 0.880036
4055.11 0.587357 0.513816 0.0 0.879402
4055.44 0.58459 0.52447 0.0 0.878769
4055.77 0.582321 0.53389 0.0 0.878137
4056.11 0.580205 0.542061 0.0 0.877506
4056.44 0.577889 0.548767 0.0 0.876876
4056.77 0.575343 0.553965 0.0 0.876247
4057.1 0.57272 0.557891 0.0 0.875619
4057.43 0.570176 0.560885 0.0 0.874992
4057.77 0.567881 0.563201 0.0 0.874367
4058.1 0.566007 0.564936 0.0 0.873743
4058.43 0.564634 0.566104 0.0 0.87312
4058.76 0.563688 0.566715 0.0 0.872498
4059.09 0.563077 0.566778 0.0 0.871879
4059.43 0.562701 0.566287 13.9522 0.87126
4059.76 0.562451 0.565536 13.9411 0.870644
4060.09 0.562213 0.564387 13.9518 0.870029
4060.42 0.561851 0.562787 13.9657 0.869416
4060.76 0.561219 0.560817 13.9864 0.868805
4061.09 0.560177 0.558646 14.0414 0.868196
4061.42 0.558608 0.556468 14.0967 0.867588
4061.75 0.556412 0.554468 14.1557 0.866983
4062.08 0.554007 0.552784 14.219 0.86638
4062.42 0.552388 0.551474 14.2826 0.865779
4062.75 0.55243 0.55048 14.2687 0.86518
4063.08 0.553713 0.549669 14.2288 0.864584
4063.41 0.555145 0.54901 14.1904 0.86399
4063.75 0.555899 0.548686 14.1842 0.863398
4064.08 0.556106 0.5494 14.178 0.862809
4064.41 0.556106 0.554257 14.1727 0.862223
4064.74 0.556161 0.554051 14.1691 0.861639
4065.08 0.556408 0.554188 14.1654 0.861058
4065.41 0.556963 0.554658 14.1553 0.86048
4065.74 0.557773 0.555441 14.1412 0.859904
4066.07 0.558664 0.556505 14.1272 0.859332
4066.41 0.559485 0.5578 14.1105 0.858762
4066.74 0.560226 0.559269 14.0936 0.858196
4067.07 0.560918 0.560861 14.0771 0.857632
4067.41 0.561631 0.56253 14.0616 0.857072
4067.74 0.562509 0.564229 14.0462 0.856515
4068.07 0.563713 0.565908 14.025 0.855961
4068.4 0.565462 0.567519 13.9982 0.855411
4068.74 0.568041 0.569024 13.9714 0.854864
4069.07 0.571576 0.570392 13.921 0.854321
4069.4 0.575054 0.571602 13.8653 0.853781
4069.74 0.576964 0.572641 13.8196 0.853245
4070.07 0.576438 0.573517 13.8548 0.852712
4070.4 0.574493 0.574234 13.8902 0.852184
4070.73 0.572474 0.574796 13.9159 0.851659
4071.07 0.57119 0.575208 13.927 0.851138
4071.4 0.570761 0.575483 13.9383 0.850621
4071.73 0.571234 0.575628 13.9299 0.850108
4072.07 0.572332 0.575639 13.9133 0.849599
4072.4 0.573593 0.575508 13.8967 0.849094
4072.73 0.574571 0.575206 13.9004 0.848594
4073.07 0.574901 0.574694 13.9041 0.848098
4073.4 0.574243 0.57394 13.9203 0.847606
4073.73 0.57256 0.572939 13.9657 0.847119
4074.07 0.570338 0.571725 14.0114 0.846636
4074.4 0.568112 0.570388 14.0585 0.846158
4074.73 0.566456 0.569057 14.1065 0.845684
4075.07 0.565966 0.567871 14.1548 0.845215
4075.4 0.567043 0.566957 14.1477 0.844751
4075.73 0.569 0.566406 14.1345 0.844292
4076.07 0.570787 0.566263 14.1225 0.843837
4076.4 0.571753 0.566541 14.1157 0.843388
4076.73 0.572142 0.567242 14.1088 0.842943
4077.07 0.57232 0.568359 14.0938 0.842504
4077.4 0.572753 0.569867 14.0709 0.84207
4077.73 0.574002 0.57174 14.048 0.841641
4078.07 0.576511 0.573945 14.0012 0.841217
4078.4 0.57981 0.576413 13.9488 0.840799
4078.74 0.583029 0.579066 13.8986 0.840386
4079.07 0.585543 0.581845 13.864 0.839979
4079.4 0.587444 0.584713 13.8296 0.839577
4079.74 0.58896 0.587647 13.7916 0.839181
4080.07 0.59041 0.590652 13.7484 0.83879
4080.4 0.59223 0.59375 13.7054 0.838405
4080.74 0.594827 0.596952 13.6423 0.838027
4081.07 0.598217 0.600233 13.5716 0.837653
4081.41 0.602197 0.603545 13.5013 0.837286
4081.74 0.606521 0.606818 13.4251 0.836925
4082.07 0.610788 0.609979 13.3495 0.83657
4082.41 0.614564 0.612972 13.287 0.836222
4082.74 0.617522 0.615783 13.2505 0.835879
4083.08 0.619507 0.618431 13.2142 0.835543
4083.41 0.62044 0.620964 13.2027 0.835213
4083.74 0.621023 0.623448 13.2056 0.834889
4084.08 0.622516 0.625929 13.2085 0.834572
4084.41 0.625847 0.628429 13.1243 0.834262
4084.75 0.630284 0.630951 13.0351 0.833958
4085.08 0.634596 0.633476 12.9568 0.83366
4085.42 0.63801 0.635952 12.9102 0.83337
4085.75 0.640661 0.638331 12.8639 0.833086
4086.08 0.642784 0.64059 12.8315 0.83281
4086.42 0.644511 0.642703 12.8104 0.83254
4086.75 0.645884 0.64465 12.7893 0.832277
4087.09 0.646931 0.646431 12.7739 0.832021
4087.42 0.647638 0.648056 12.7596 0.831773
4087.76 0.647974 0.649507 12.746 0.831531
4088.09 0.647946 0.650757 12.736 0.831297
4088.42 0.647659 0.651776 12.726 0.831071
4088.76 0.647228 0.652531 12.7227 0.830851
4089.09 0.646718 0.652992 12.7267 0.830639
4089.43 0.646145 0.653148 12.7307 0.830435
4089.76 0.645506 0.653007 12.7495 0.830238
4090.1 0.644727 0.652581 12.7723 0.830049
4090.43 0.643692 0.651877 12.7947 0.829868
4090.77 0.642278 0.650878 12.8117 0.829695
4091.1 0.640326 0.649545 12.8288 0.829529
4091.44 0.637679 0.647826 12.8721 0.829371
4091.77 0.634481 0.645665 12.9539 0.829222
4092.11 0.631254 0.643024 13.0365 0.82908
4092.44 0.628479 0.639909 13.1092 0.828947
4092.78 0.626 0.636361 13.1783 0.828822
4093.11 0.623304 0.63244 13.2486 0.828705
4093.45 0.619958 0.628206 13.3411 0.828596
4093.78 0.615841 0.623695 13.4346 0.828496
4094.12 0.610904 0.618909 13.5366 0.828404
4094.45 0.605233 0.613834 13.6541 0.828321
4094.79 0.599116 0.608466 13.7732 0.828246
4095.12 0.592851 0.602836 13.8887 0.828179
4095.46 0.586663 0.59703 14.0029 0.828121
4095.79 0.580729 0.591157 14.1185 0.828071
4096.13 0.575228 0.585317 14.1955 0.828029
4096.46 0.57036 0.579578 14.2721 0.827994
4096.8 0.566329 0.57396 14.3371 0.827968
4097.13 0.563327 0.568442 14.372 0.827949
4097.47 0.561525 0.563 14.4072 0.827938
4097.8 0.561006 0.557637 14.4564 0.827934
4098.14 0.560558 0.552398 14.5152 0.827937
4098.47 0.557977 0.547364 14.5743 0.827948
4098.81 0.551678 0.542636 14.7728 0.827966
4099.14 0.543357 0.538315 14.9881 0.827992
4099.48 0.535755 0.534475 15.1742 0.828024
4099.81 0.530629 0.531147 15.2514 0.828063
4100.15 0.527737 0.528328 15.3292 0.828109
4100.48 0.526594 0.525996 15.3716 0.828161
4100.82 0.526654 0.524136 15.3849 0.82822
4101.16 0.527325 0.522746 15.3982 0.828286
4101.49 0.528077 0.521851 15.3921 0.828358
4101.83 0.528786 0.521495 15.383 0.828436
4102.16 0.529474 0.521707 15.3712 0.828521
4102.5 0.530201 0.522499 15.3477 0.828611
4102.83 0.531098 0.523852 15.3243 0.828708
4103.17 0.532313 0.525715 15.29 0.82881
4103.51 0.533967 0.528021 15.2454 0.828918
4103.84 0.536163 0.53071 15.2009 0.829032
4104.18 0.538986 0.533733 15.1346 0.829151
4104.51 0.542392 0.537054 15.0641 0.829276
4104.85 0.546289 0.540646 14.9913 0.829406
4105.18 0.55056 0.544484 14.9024 0.829542
4105.52 0.555039 0.548534 14.8142 0.829682
4105.86 0.559551 0.552731 14.7271 0.829828
4106.19 0.56395 0.556973 14.6411 0.829979
4106.53 0.568127 0.561148 14.5557 0.830134
4106.86 0.571979 0.56515 14.4779 0.830294
4107.2 0.575443 0.568881 14.4025 0.830459
4107.54 0.57847 0.572281 14.3305 0.830629
4107.87 0.581067 0.575341 14.2818 0.830803
4108.21 0.583379 0.578099 14.2333 0.830981
4108.54 0.585581 0.580603 14.1867 0.831163
4108.88 0.587795 0.58291 14.1424 0.83135
4109.22 0.590087 0.585079 14.0982 0.831541
4109.55 0.5925 0.587164 14.0518 0.831735
4109.89 0.594943 0.589193 14.0049 0.831934
4110.23 0.597254 0.591177 13.9597 0.832136
4110.56 0.599285 0.593112 13.9328 0.832342
4110.9 0.600938 0.594977 13.906 0.832551
4111.23 0.602124 0.596745 13.8934 0.832764
4111.57 0.602766 0.598395 13.9018 0.83298
4111.91 0.602804 0.599925 13.9102 0.833199
4112.24 0.602257 0.601353 13.9189 0.833422
4112.58 0.601912 0.602715 13.9276 0.833648
4112.92 0.602978 0.604053 13.9321 0.833876
4113.25 0.60611 0.605408 13.8569 0.834107
4113.59 0.610038 0.606808 13.7824 0.834341
4113.93 0.6131 0.608249 13.7301 0.834578
4114.26 0.614623 0.609706 13.7139 0.834817
4114.6 0.615299 0.611144 13.6978 0.835059
4114.94 0.615879 0.612525 13.6926 0.835303
4115.27 0.616667 0.613809 13.6921 0.835549
4115.61 0.617702 0.61497 13.6917 0.835797
4115.95 0.618911 0.615997 13.6967 0.836047
4116.28 0.619823 0.616874 13.7017 0.8363
4116.62 0.619882 0.617588 13.7119 0.836554
4116.96 0.618956 0.618135 13.7314 0.836809
4117.29 0.617528 0.618516 13.7509 0.837067
4117.63 0.616113 0.618738 13.7694 0.837326
4117.97 0.615058 0.618813 13.7875 0.837586
4118.3 0.614606 0.618763 13.8054 0.837847
4118.64 0.614937 0.618616 13.8012 0.83811
4118.98 0.615999 0.618405 13.797 0.838374
4119.32 0.617674 0.61817 13.801 0.838639
4119.65 0.619256 0.617949 13.821 0.838905
4119.99 0.61915 0.617772 13.8409 0.839171
4120.33 0.615919 0.617653 13.8982 0.839439
4120.66 0.610786 0.617598 13.9742 0.839706
4121.0 0.606658 0.617598 14.0504 0.839975
4121.34 0.605864 0.617647 14.0089 0.840244
4121.68 0.608321 0.61774 13.9676 0.840513
4122.01 0.613342 0.617884 13.9141 0.840782
4122.35 0.619713 0.618083 13.8366 0.841051
4122.69 0.625407 0.618343 13.7598 0.841321
4123.02 0.628456 0.618662 13.7379 0.84159
4123.36 0.628393 0.619027 13.7433 0.841859
4123.7 0.625724 0.619408 13.7488 0.842128
4124.04 0.621162 0.61977 13.841 0.842396
4124.37 0.61619 0.620074 13.9343 0.842664
4124.71 0.612467 0.620278 14.0076 0.842931
4125.05 0.610758 0.620343 14.0389 0.843197
4125.39 0.610424 0.620237 14.0704 0.843463
4125.72 0.61073 0.619938 14.074 0.843727
4126.06 0.611233 0.619427 14.0634 0.843991
4126.4 0.61168 0.618683 14.0528 0.844254
4126.74 0.611811 0.617687 14.074 0.844515
4127.07 0.611338 0.616418 14.0953 0.844775
4127.41 0.609969 0.614853 14.131 0.845033
4127.75 0.607672 0.612973 14.1959 0.84529
4128.09 0.604813 0.61079 14.2612 0.845546
4128.43 0.601785 0.608341 14.3327 0.845799
4128.76 0.59885 0.605687 14.4074 0.846051
4129.1 0.596188 0.602903 14.4827 0.846301
4129.44 0.593971 0.600078 14.5377 0.846549
4129.78 0.592342 0.597287 14.5931 0.846795
4130.11 0.591436 0.594589 14.6295 0.847038
4130.45 0.591358 0.592035 14.6285 0.847279
4130.79 0.592166 0.589672 14.6276 0.847518
4131.13 0.593874 0.587535 14.5775 0.847754
4131.47 0.596092 0.585671 14.5044 0.847987
4131.8 0.598171 0.584142 14.4327 0.848218
4132.14 0.599569 0.583002 14.4213 0.848446
4132.48 0.60017 0.582294 14.41 0.848671
4132.82 0.599965 0.582051 14.412 0.848893
4133.16 0.599071 0.582271 14.4388 0.849111
4133.5 0.597795 0.58291 14.4657 0.849327
4133.83 0.596453 0.583908 14.5014 0.849539
4134.17 0.595302 0.585217 14.5412 0.849747
4134.51 0.594566 0.586817 14.5804 0.849953
4134.85 0.594446 0.588708 14.5991 0.850154
4135.19 0.59508 0.590908 14.6177 0.850352
4135.53 0.596582 0.593408 14.6204 0.850545
4135.86 0.598834 0.59615 14.5958 0.850735
4136.2 0.601389 0.599023 14.5712 0.850921
4136.54 0.603795 0.601885 14.5292 0.851102
4136.88 0.605808 0.604606 14.4803 0.85128
4137.22 0.607304 0.607094 14.432 0.851453
4137.56 0.608299 0.609296 14.3912 0.851621
4137.89 0.609286 0.611166 14.3505 0.851785
4138.23 0.610845 0.612647 14.31 0.851945
4138.57 0.612777 0.613664 14.2695 0.8521
4138.91 0.613851 0.614129 14.2292 0.852251
4139.25 0.612931 0.613961 14.255 0.852397
4139.59 0.610421 0.613129 14.3049 0.85254
4139.93 0.60755 0.611671 14.3559 0.852678
4140.26 0.605201 0.609686 14.4161 0.852812
4140.6 0.603125 0.607304 14.4767 0.852942
4140.94 0.600856 0.604658 14.5419 0.853069
4141.28 0.598212 0.601862 14.6133 0.853191
4141.62 0.595359 0.598995 14.6852 0.85331
4141.96 0.592489 0.596103 14.7496 0.853425
4142.3 0.589846 0.593213 14.8118 0.853537
4142.64 0.5877 0.590356 14.8716 0.853645
4142.98 0.586225 0.587579 14.9076 0.853749
4143.31 0.585318 0.584947 14.9437 0.85385
4143.65 0.584823 0.582534 14.97 0.853948
4143.99 0.584517 0.580407 14.9841 0.854042
4144.33 0.584097 0.578619 14.9983 0.854134
4144.67 0.583274 0.57719 15.0209 0.854222
4145.01 0.58188 0.576129 15.0456 0.854307
4145.35 0.579801 0.575428 15.0796 0.854389
4145.69 0.57719 0.575059 15.1676 0.854468
4146.03 0.574889 0.574985 15.2565 0.854544
4146.37 0.573822 0.575184 15.2931 0.854617
4146.71 0.574113 0.575646 15.275 0.854688
4147.05 0.575074 0.57636 15.2569 0.854756
4147.38 0.576066 0.577311 15.2294 0.854821
4147.72 0.577016 0.578469 15.2001 0.854884
4148.06 0.57808 0.57978 15.1708 0.854944
4148.4 0.579322 0.581149 15.1413 0.855002
4148.74 0.580607 0.582459 15.1119 0.855058
4149.08 0.581766 0.583598 15.0936 0.855111
4149.42 0.582643 0.584489 15.085 0.855163
4149.76 0.583088 0.585094 15.0765 0.855212
4150.1 0.583007 0.585417 15.0867 0.855259
4150.44 0.582625 0.585501 15.0995 0.855304
4150.78 0.582279 0.585407 15.1098 0.855347
4151.12 0.582205 0.585186 15.1119 0.855389
4151.46 0.582428 0.584872 15.114 0.855428
4151.8 0.582933 0.58449 15.1084 0.855466
4152.14 0.583495 0.584066 15.0974 0.855502
4152.48 0.583718 0.583629 15.0864 0.855537
4152.82 0.583302 0.583216 15.1252 0.85557
4153.16 0.58243 0.582858 15.1676 0.855602
4153.5 0.581435 0.582579 15.1963 0.855632
4153.84 0.580611 0.5824 15.1901 0.855661
4154.18 0.580181 0.582336 15.1838 0.855689
4154.52 0.580349 0.582418 15.1806 0.855716
4154.86 0.581155 0.582699 15.1791 0.855742
4155.2 0.582522 0.583244 15.1777 0.855766
4155.54 0.584366 0.584095 15.1588 0.85579
4155.88 0.586576 0.585273 15.1398 0.855813
4156.22 0.589037 0.586768 15.1104 0.855835
4156.56 0.59167 0.588552 15.0612 0.855856
4156.9 0.594448 0.590602 15.0122 0.855877
4157.24 0.597348 0.592915 14.9604 0.855897
4157.58 0.600312 0.595495 14.9077 0.855916
4157.92 0.603264 0.598341 14.8549 0.855935
4158.26 0.606139 0.601439 14.7982 0.855954
4158.6 0.608911 0.604746 14.7419 0.855972
4158.94 0.611564 0.608189 14.6861 0.85599
4159.28 0.614059 0.61169 14.6311 0.856008
4159.62 0.616332 0.615171 14.5764 0.856026
4159.96 0.618351 0.618548 14.5217 0.856043
4160.3 0.620373 0.621743 14.4672 0.856061
4160.64 0.622803 0.624694 14.4132 0.856079
4160.98 0.62575 0.627357 14.3606 0.856096
4161.32 0.628485 0.629706 14.3083 0.856115
4161.66 0.630156 0.631733 14.2727 0.856133
4162.0 0.630522 0.633446 14.2553 0.856152
4162.34 0.629999 0.63485 14.2379 0.856171
4162.68 0.629058 0.635936 14.2406 0.85619
4163.02 0.628328 0.636683 14.2475 0.856211
4163.36 0.628501 0.637076 14.2544 0.856232
4163.7 0.629639 0.637115 14.2609 0.856253
4164.05 0.630338 0.636806 14.2674 0.856275
4164.39 0.629076 0.636184 14.3204 0.856299
4164.73 0.625911 0.635308 14.4127 0.856323
4165.07 0.622308 0.63423 14.5059 0.856348
4165.41 0.619528 0.632983 14.5536 0.856374
4165.75 0.617487 0.631572 14.5966 0.856401
4166.09 0.615653 0.629986 14.6406 0.856429
4166.43 0.613703 0.628199 14.687 0.856459
4166.77 0.6117 0.626196 14.7336 0.85649
4167.11 0.60975 0.623987 14.7787 0.856522
4167.45 0.607933 0.621607 14.8228 0.856556
4167.79 0.60631 0.61912 14.8671 0.856591
4168.14 0.604916 0.616591 14.9043 0.856628
4168.48 0.60368 0.614055 14.9416 0.856667
4168.82 0.602498 0.611519 14.9804 0.856707
4169.16 0.601257 0.608971 15.022 0.856749
4169.5 0.599822 0.606398 15.0638 0.856793
4169.84 0.598067 0.603797 15.1157 0.856839
4170.18 0.595985 0.601188 15.172 0.856887
4170.52 0.59364 0.598612 15.2274 0.856937
4170.86 0.591174 0.596105 15.2649 0.856989
4171.21 0.588991 0.593682 15.3026 0.857043
4171.55 0.587537 0.591331 15.3462 0.8571
4171.89 0.586849 0.589041 15.3978 0.857158
4172.23 0.586477 0.586823 15.4497 0.85722
4172.57 0.585987 0.58471 15.4647 0.857284
4172.91 0.585314 0.582748 15.4702 0.85735
4173.25 0.584555 0.580984 15.4786 0.857419
4173.6 0.583792 0.579455 15.5022 0.857491
4173.94 0.583062 0.578169 15.5258 0.857565
4174.28 0.582396 0.577123 15.5507 0.857642
4174.62 0.581796 0.57631 15.5766 0.857723
4174.96 0.581236 0.575727 15.6026 0.857806
4175.3 0.580701 0.575382 15.6134 0.857892
4175.64 0.580229 0.575277 15.6223 0.857981
4175.99 0.579876 0.575403 15.6265 0.858074
4176.33 0.579707 0.575734 15.617 0.858169
4176.67 0.579798 0.576249 15.6075 0.858268
4177.01 0.580229 0.576917 15.584 0.858371
4177.35 0.581092 0.577719 15.552 0.858476
4177.7 0.58249 0.578658 15.5201 0.858586
4178.04 0.584415 0.579755 15.4614 0.858699
4178.38 0.586396 0.581022 15.4027 0.858815
4178.72 0.587849 0.582449 15.3581 0.858935
4179.06 0.588681 0.584006 15.3386 0.859059
4179.4 0.589516 0.58564 15.3192 0.859187
4179.75 0.590977 0.587277 15.288 0.859319
4180.09 0.593121 0.588864 15.2523 0.859455
4180.43 0.595686 0.590388 15.2159 0.859595
4180.77 0.598373 0.591863 15.1719 0.859739
4181.11 0.600782 0.593332 15.128 0.859887
4181.46 0.602504 0.594847 15.0948 0.86004
4181.8 0.603444 0.596444 15.0739 0.860196
4182.14 0.603856 0.598109 15.053 0.860357
4182.48 0.604018 0.599788 15.0598 0.860522
4182.83 0.604235 0.601402 15.0724 0.860692
4183.17 0.604824 0.602861 15.0788 0.860865
4183.51 0.605958 0.604084 15.0597 0.861042
4183.85 0.607493 0.605032 15.0407 0.861223
4184.19 0.609239 0.60572 15.0146 0.861408
4184.54 0.611025 0.606215 14.9833 0.861597
4184.88 0.612693 0.606622 14.952 0.86179
4185.22 0.614104 0.607045 14.9384 0.861986
4185.56 0.615227 0.607559 14.926 0.862186
4185.91 0.61606 0.608197 14.9164 0.862389
4186.25 0.616626 0.608947 14.9132 0.862596
4186.59 0.61699 0.609768 14.91 0.862807
4186.93 0.617233 0.610617 14.9021 0.86302
4187.28 0.61758 0.611472 14.892 0.863238
4187.62 0.618343 0.612331 14.8816 0.863458
4187.96 0.619745 0.613211 14.8638 0.863682
4188.3 0.6217 0.614134 14.846 0.863908
4188.65 0.624047 0.615118 14.8329 0.864138
4188.99 0.626252 0.616165 14.826 0.864371
4189.33 0.627333 0.617261 14.8192 0.864607
4189.68 0.626488 0.618381 14.838 0.864846
4190.02 0.624416 0.619492 14.863 0.865088
4190.36 0.622481 0.620558 14.8841 0.865332
4190.7 0.621621 0.621539 14.8867 0.86558
4191.05 0.621756 0.62239 14.8892 0.865829
4191.39 0.62265 0.623081 14.882 0.866082
4191.73 0.623938 0.623592 14.8668 0.866337
4192.08 0.625135 0.623909 14.8517 0.866595
4192.42 0.625802 0.62402 14.8646 0.866855
4192.76 0.625717 0.6239 14.8796 0.867118
4193.1 0.624734 0.623504 14.9059 0.867383
4193.45 0.622858 0.622771 14.9578 0.86765
4193.79 0.620355 0.621642 15.0101 0.867919
4194.13 0.617513 0.62008 15.0723 0.868191
4194.48 0.614584 0.618099 15.1393 0.868464
4194.82 0.611795 0.615765 15.2059 0.86874
4195.16 0.609289 0.61318 15.2585 0.869018
4195.51 0.606914 0.610462 15.3114 0.869298
4195.85 0.604473 0.607726 15.3619 0.869579
4196.19 0.602154 0.60505 15.4091 0.869862
4196.54 0.600608 0.602468 15.4566 0.870148
4196.88 0.600349 0.599983 15.4758 0.870434
4197.22 0.600778 0.597575 15.4886 0.870723
4197.57 0.600819 0.59522 15.5108 0.871013
4197.91 0.599779 0.592913 15.5722 0.871304
4198.25 0.597827 0.59068 15.6339 0.871597
4198.6 0.595273 0.58858 15.6897 0.871892
4198.94 0.59274 0.586707 15.741 0.872188
4199.28 0.591112 0.58517 15.7926 0.872485
4199.63 0.591116 0.584064 15.7721 0.872783
4199.97 0.592718 0.58347 15.7484 0.873082
4200.32 0.595663 0.583447 15.7051 0.873383
4200.66 0.599375 0.584018 15.6235 0.873685
4201.0 0.60279 0.585185 15.5426 0.873987
4201.35 0.604909 0.586954 15.5172 0.874291
4201.69 0.605768 0.589315 15.5134 0.874595
4202.03 0.605993 0.592234 15.5132 0.874901
4202.38 0.606152 0.595665 15.5457 0.875207
4202.72 0.606634 0.599539 15.5782 0.875513
4203.07 0.607792 0.603754 15.5756 0.875821
4203.41 0.60985 0.608195 15.5353 0.876129
4203.75 0.612901 0.612767 15.4952 0.876437
4204.1 0.616947 0.61739 15.4104 0.876746
4204.44 0.621476 0.622015 15.3194 0.877056
4204.79 0.625785 0.626638 15.2273 0.877365
4205.13 0.629522 0.63127 15.13 0.877675
4205.47 0.633016 0.635903 15.0336 0.877986
4205.82 0.636666 0.6405 14.9364 0.878296
4206.16 0.640766 0.644997 14.839 0.878607
