"Wavelength (A)" Specta "Best Fitting Model" "Non-parm Extinction Curve" "Non-param Adjusted Continuum"
4051.13 0.595652 0.290154 0.0 0.881144
4051.46 0.598052 0.316007 0.0 0.880546
4051.79 0.59962 0.341877 0.0 0.879948
4052.13 0.600235 0.368913 0.0 0.87935
4052.46 0.600294 0.397119 0.0 0.878753
4052.79 0.600232 0.425287 0.0 0.878155
4053.12 0.600182 0.451589 0.0 0.877558
4053.45 0.60003 0.474575 0.0 0.876962
4053.78 0.599655 0.493883 0.0 0.876366
4054.12 0.598952 0.510089 0.0 0.87577
4054.45 0.597818 0.523963 0.0 0.875176
4054.78 0.596183 0.535924 0.0 0.874581
4055.11 0.594061 0.545978 0.0 0.873988
4055.44 0.591482 0.553958 0.0 0.873396
4055.77 0.588542 0.559839 0.0 0.872804
4056.11 0.585417 0.563864 0.0 0.872214
4056.44 0.582279 0.566455 0.0 0.871625
4056.77 0.579218 0.568047 0.0 0.871037
4057.1 0.576278 0.569008 0.0 0.87045
4057.43 0.573547 0.569654 0.0 0.869864
4057.77 0.571296 0.570222 0.0 0.86928
4058.1 0.569835 0.570826 0.0 0.868698
4058.43 0.569135 0.571404 0.0 0.868117
4058.76 0.568585 0.571691 0.0 0.867537
4059.09 0.567536 0.571346 0.0 0.866959
4059.43 0.56568 0.570208 7.23721 0.866383
4059.76 0.562976 0.568435 7.26594 0.865809
4060.09 0.559526 0.566222 7.30216 0.865237
4060.42 0.556204 0.563723 7.3397 0.864666
4060.76 0.554164 0.561091 7.37128 0.864098
4061.09 0.55396 0.558565 7.37143 0.863532
4061.42 0.554665 0.556452 7.37159 0.862968
4061.75 0.555152 0.554749 7.38002 0.862407
4062.08 0.554935 0.552868 7.39834 0.861847
4062.42 0.554244 0.550376 7.41673 0.861291
4062.75 0.55334 0.547585 7.4366 0.860736
4063.08 0.552388 0.54496 7.45703 0.860185
4063.41 0.551506 0.542701 7.47706 0.859635
4063.75 0.550735 0.540868 7.48628 0.859089
4064.08 0.549844 0.539759 7.49552 0.858545
4064.41 0.54855 0.543337 7.50831 0.858005
4064.74 0.546945 0.542842 7.52819 0.857467
4065.08 0.545703 0.542933 7.54816 0.856932
4065.41 0.545497 0.543733 7.55592 0.856401
4065.74 0.54632 0.545339 7.55644 0.855872
4066.07 0.547682 0.54776 7.55696 0.855347
4066.41 0.549142 0.550878 7.54224 0.854825
4066.74 0.55058 0.554454 7.52629 0.854306
4067.07 0.551974 0.558193 7.50795 0.853791
4067.41 0.55353 0.561814 7.48097 0.85328
4067.74 0.55593 0.565108 7.45413 0.852772
4068.07 0.559866 0.567963 7.41549 0.852267
4068.4 0.564927 0.570355 7.36594 0.851767
4068.74 0.569632 0.572312 7.31688 0.85127
4069.07 0.572658 0.573875 7.29597 0.850777
4069.4 0.574105 0.575076 7.28163 0.850288
4069.74 0.574698 0.575941 7.26977 0.849803
4070.07 0.575018 0.576515 7.27828 0.849323
4070.4 0.575217 0.576861 7.28681 0.848846
4070.73 0.575375 0.577045 7.29223 0.848374
4071.07 0.575633 0.577114 7.29302 0.847906
4071.4 0.576214 0.577069 7.29381 0.847443
4071.73 0.577288 0.576848 7.29008 0.846984
4072.07 0.578412 0.576347 7.28442 0.846529
4072.4 0.578786 0.575472 7.27878 0.846079
4072.73 0.577847 0.574185 7.29006 0.845634
4073.07 0.575996 0.572529 7.30137 0.845194
4073.4 0.573877 0.570631 7.31311 0.844759
4073.73 0.572034 0.568664 7.32586 0.844328
4074.07 0.570837 0.566781 7.33863 0.843903
4074.4 0.570606 0.565083 7.34352 0.843482
4074.73 0.571075 0.563609 7.34312 0.843067
4075.07 0.571533 0.562339 7.34273 0.842657
4075.4 0.571389 0.561245 7.34036 0.842252
4075.73 0.57077 0.560324 7.33777 0.841853
4076.07 0.570045 0.559616 7.33508 0.841459
4076.4 0.569476 0.559205 7.33198 0.84107
4076.73 0.569095 0.559194 7.32888 0.840687
4077.07 0.568903 0.559676 7.32934 0.84031
4077.4 0.569031 0.560696 7.33334 0.839939
4077.73 0.569729 0.562276 7.33735 0.839573
4078.07 0.571234 0.564417 7.32472 0.839213
4078.4 0.573629 0.567097 7.3081 0.838859
4078.74 0.576928 0.570289 7.29003 0.838512
4079.07 0.58091 0.573968 7.25951 0.83817
4079.4 0.584661 0.578089 7.22918 0.837835
4079.74 0.587171 0.582556 7.20247 0.837505
4080.07 0.588349 0.58724 7.18081 0.837182
4080.4 0.589271 0.591998 7.15924 0.836866
4080.74 0.591033 0.596686 7.12684 0.836556
4081.07 0.594201 0.60118 7.09032 0.836252
4081.41 0.599034 0.605408 7.05376 0.835955
4081.74 0.605484 0.609335 7.00149 0.835665
4082.07 0.61234 0.612949 6.9498 0.835382
4082.41 0.618128 0.616246 6.90442 0.835105
4082.74 0.622049 0.619222 6.87136 0.834836
4083.08 0.62438 0.621875 6.83854 0.834573
4083.41 0.625511 0.62422 6.81869 0.834317
4083.74 0.626072 0.62632 6.8064 0.834069
4084.08 0.626864 0.628258 6.79414 0.833828
4084.41 0.628529 0.630139 6.77618 0.833594
4084.75 0.630919 0.632085 6.7579 0.833367
4085.08 0.633647 0.634193 6.73789 0.833148
4085.42 0.636412 0.636503 6.71238 0.832936
4085.75 0.639081 0.639021 6.68701 0.832732
4086.08 0.64155 0.64174 6.66587 0.832536
4086.42 0.643782 0.644623 6.64813 0.832347
4086.75 0.645807 0.647613 6.63047 0.832166
4087.09 0.647643 0.650651 6.62329 0.831993
4087.42 0.649227 0.653678 6.61784 0.831828
4087.76 0.650464 0.6566 6.61251 0.831671
4088.09 0.651369 0.659317 6.60778 0.831522
4088.42 0.652225 0.661736 6.60306 0.831381
4088.76 0.653348 0.663782 6.59207 0.831248
4089.09 0.65491 0.665405 6.57424 0.831124
4089.43 0.65693 0.666569 6.55648 0.831008
4089.76 0.659346 0.667245 6.53483 0.830901
4090.1 0.661513 0.667398 6.51221 0.830802
4090.43 0.662518 0.666988 6.49367 0.830711
4090.77 0.661742 0.665972 6.51213 0.83063
4091.1 0.659456 0.664333 6.53068 0.830557
4091.44 0.656098 0.662101 6.5632 0.830493
4091.77 0.652151 0.659329 6.61634 0.830438
4092.11 0.648155 0.656077 6.67013 0.830392
4092.44 0.644583 0.6524 6.71235 0.830354
4092.78 0.641209 0.648334 6.75019 0.830326
4093.11 0.637417 0.643898 6.78877 0.830308
4093.45 0.632705 0.639113 6.84079 0.830298
4093.78 0.626999 0.634032 6.89341 0.830298
4094.12 0.620327 0.62873 6.95037 0.830307
4094.45 0.61309 0.623295 7.0152 0.830326
4094.79 0.606246 0.617803 7.08095 0.830354
4095.12 0.600723 0.6123 7.14133 0.830391
4095.46 0.596544 0.606793 7.19918 0.830437
4095.79 0.593131 0.601253 7.25774 0.830492
4096.13 0.589873 0.59563 7.30914 0.830556
4096.46 0.586059 0.589887 7.36087 0.830629
4096.8 0.580959 0.584013 7.4159 0.83071
4097.13 0.57464 0.578029 7.47843 0.8308
4097.47 0.568574 0.571993 7.54176 0.830898
4097.8 0.564256 0.565984 7.59208 0.831004
4098.14 0.561391 0.560089 7.63371 0.831119
4098.47 0.558312 0.554384 7.67568 0.831241
4098.81 0.553675 0.54894 7.73675 0.831371
4099.14 0.547954 0.543821 7.80025 0.831509
4099.48 0.542205 0.539097 7.86273 0.831654
4099.81 0.53723 0.534843 7.91992 0.831807
4100.15 0.533318 0.531145 7.97775 0.831967
4100.48 0.53068 0.528082 8.01853 0.832134
4100.82 0.529222 0.525719 8.04516 0.832308
4101.16 0.528581 0.524086 8.07192 0.832489
4101.49 0.528404 0.523187 8.08605 0.832677
4101.83 0.528427 0.523016 8.0983 0.832871
4102.16 0.528424 0.52356 8.10776 0.833072
4102.5 0.528396 0.524831 8.10495 0.83328
4102.83 0.528873 0.526863 8.10214 0.833494
4103.17 0.53045 0.5297 8.08146 0.833714
4103.51 0.533488 0.533362 8.04351 0.83394
4103.84 0.538116 0.53782 8.00581 0.834171
4104.18 0.544319 0.542976 7.93498 0.834409
4104.51 0.55116 0.54866 7.85811 0.834652
4104.85 0.557317 0.554653 7.78601 0.834901
4105.18 0.562156 0.56074 7.73629 0.835155
4105.52 0.566831 0.566744 7.68705 0.835415
4105.86 0.572731 0.572539 7.63271 0.835679
4106.19 0.579702 0.57804 7.57263 0.835949
4106.53 0.585903 0.583182 7.51325 0.836224
4106.86 0.589693 0.587909 7.49169 0.836503
4107.2 0.59168 0.592144 7.48031 0.836787
4107.54 0.593513 0.595805 7.466 0.837075
4107.87 0.596304 0.598844 7.42759 0.837368
4108.21 0.59958 0.60127 7.38946 0.837665
4108.54 0.602592 0.603146 7.35697 0.837966
4108.88 0.604877 0.604577 7.33172 0.838271
4109.22 0.606313 0.605701 7.30659 0.83858
4109.55 0.606878 0.60665 7.2923 0.838893
4109.89 0.607249 0.607516 7.28156 0.839209
4110.23 0.608459 0.608355 7.26939 0.839529
4110.56 0.61126 0.609206 7.23989 0.839852
4110.9 0.61551 0.610103 7.21056 0.840179
4111.23 0.620881 0.611086 7.17206 0.840508
4111.57 0.626781 0.612203 7.12 0.840841
4111.91 0.632276 0.613509 7.06851 0.841176
4112.24 0.63643 0.61504 7.04234 0.841514
4112.58 0.638526 0.616797 7.02567 0.841855
4112.92 0.637963 0.61875 7.01144 0.842198
4113.25 0.634654 0.620843 7.04206 0.842544
4113.59 0.630272 0.623014 7.07289 0.842891
4113.93 0.62685 0.625192 7.09236 0.843241
4114.26 0.625563 0.627314 7.09271 0.843593
4114.6 0.626398 0.629328 7.09306 0.843947
4114.94 0.629176 0.631188 7.08062 0.844302
4115.27 0.632894 0.632839 7.06281 0.844659
4115.61 0.636066 0.634219 7.04581 0.845018
4115.95 0.63753 0.635266 7.05301 0.845377
4116.28 0.637338 0.635927 7.06023 0.845738
4116.62 0.635829 0.63617 7.07397 0.8461
4116.96 0.633623 0.636012 7.09955 0.846463
4117.29 0.631757 0.635521 7.12526 0.846827
4117.63 0.631196 0.634792 7.13641 0.847192
4117.97 0.631776 0.633927 7.14083 0.847557
4118.3 0.632637 0.632998 7.14521 0.847922
4118.64 0.633047 0.63204 7.14689 0.848288
4118.98 0.632807 0.631047 7.14858 0.848654
4119.32 0.63185 0.630013 7.15478 0.84902
4119.65 0.630361 0.628962 7.16966 0.849386
4119.99 0.628909 0.627961 7.18459 0.849752
4120.33 0.628049 0.627108 7.18671 0.850117
4120.66 0.627827 0.626511 7.18259 0.850482
4121.0 0.627968 0.626242 7.17851 0.850847
4121.34 0.628196 0.626323 7.18412 0.851211
4121.68 0.628261 0.626725 7.18974 0.851574
4122.01 0.627921 0.627388 7.19909 0.851936
4122.35 0.627047 0.628245 7.2159 0.852296
4122.69 0.625684 0.629243 7.23278 0.852656
4123.02 0.623907 0.630336 7.254 0.853015
4123.36 0.621996 0.631467 7.27747 0.853371
4123.7 0.620363 0.632562 7.30105 0.853727
4124.04 0.619381 0.633541 7.31283 0.85408
4124.37 0.61926 0.63433 7.32462 0.854432
4124.71 0.620166 0.63488 7.32575 0.854782
4125.05 0.621959 0.635177 7.30534 0.85513
4125.39 0.624023 0.635241 7.28501 0.855475
4125.72 0.625732 0.635104 7.27327 0.855818
4126.06 0.626822 0.634774 7.26585 0.856159
4126.4 0.627265 0.634213 7.25844 0.856497
4126.74 0.627044 0.633351 7.26733 0.856832
4127.07 0.626181 0.632099 7.27628 0.857165
4127.41 0.624706 0.630375 7.28565 0.857494
4127.75 0.622817 0.628128 7.29586 0.857821
4128.09 0.620965 0.62538 7.30609 0.858144
4128.43 0.619567 0.622212 7.31799 0.858463
4128.76 0.618409 0.618741 7.33075 0.85878
4129.1 0.616864 0.615078 7.34356 0.859092
4129.44 0.614544 0.61132 7.36101 0.859401
4129.78 0.612017 0.607526 7.37852 0.859706
4130.11 0.610087 0.603744 7.3919 0.860007
4130.45 0.609297 0.600043 7.39717 0.860304
4130.79 0.609793 0.596531 7.40244 0.860597
4131.13 0.611572 0.593339 7.39994 0.860885
4131.47 0.613289 0.590606 7.39373 0.861169
4131.8 0.612759 0.588425 7.38838 0.861448
4132.14 0.608682 0.586822 7.44258 0.861722
4132.48 0.603202 0.585771 7.49738 0.861992
4132.82 0.59926 0.585253 7.53832 0.862256
4133.16 0.598206 0.585283 7.55286 0.862516
4133.5 0.599038 0.585923 7.56745 0.86277
4133.83 0.600626 0.587262 7.56224 0.863018
4134.17 0.602462 0.589364 7.54819 0.863261
4134.51 0.604414 0.592217 7.53405 0.863499
4134.85 0.606367 0.595723 7.51561 0.863731
4135.19 0.608248 0.599731 7.49723 0.863956
4135.53 0.609991 0.604077 7.47936 0.864176
4135.86 0.61164 0.608634 7.46231 0.86439
4136.2 0.613384 0.61331 7.44532 0.864597
4136.54 0.615407 0.618026 7.42861 0.864798
4136.88 0.617705 0.622673 7.41204 0.864992
4137.22 0.620169 0.627099 7.39567 0.86518
4137.56 0.622653 0.631099 7.38226 0.865361
4137.89 0.624888 0.634447 7.36888 0.865535
4138.23 0.626588 0.636939 7.35962 0.865702
4138.57 0.627778 0.638438 7.35668 0.865863
4138.91 0.628893 0.638882 7.35375 0.866017
4139.25 0.630296 0.63827 7.34472 0.866165
4139.59 0.631445 0.636653 7.33351 0.866306
4139.93 0.63131 0.634112 7.32393 0.866442
4140.26 0.629261 0.63075 7.33356 0.866571
4140.6 0.625965 0.626687 7.34322 0.866693
4140.94 0.622332 0.622067 7.36281 0.86681
4141.28 0.618776 0.617063 7.39627 0.866922
4141.62 0.615097 0.61186 7.42996 0.867027
4141.96 0.611085 0.60665 7.48074 0.867127
4142.3 0.606754 0.601616 7.53732 0.867221
4142.64 0.602225 0.596922 7.59441 0.86731
4142.98 0.597682 0.592691 7.65093 0.867393
4143.31 0.593473 0.589003 7.70809 0.867471
4143.65 0.589971 0.5859 7.75518 0.867544
4143.99 0.587389 0.583396 7.78969 0.867612
4144.33 0.585756 0.5815 7.82444 0.867675
4144.67 0.585072 0.580225 7.83851 0.867734
4145.01 0.585193 0.579614 7.84735 0.867787
4145.35 0.585907 0.57972 7.85514 0.867836
4145.69 0.586868 0.580565 7.85667 0.86788
4146.03 0.587372 0.582101 7.85821 0.86792
4146.37 0.586701 0.584214 7.86312 0.867955
4146.71 0.585249 0.586729 7.87154 0.867986
4147.05 0.584546 0.589436 7.87997 0.868013
4147.38 0.58591 0.592131 7.86618 0.868036
4147.72 0.588958 0.59466 7.84816 0.868055
4148.06 0.59262 0.596934 7.82903 0.86807
4148.4 0.59585 0.59891 7.80489 0.868082
4148.74 0.597664 0.600548 7.78086 0.86809
4149.08 0.597148 0.601804 7.77544 0.868094
4149.42 0.594575 0.602628 7.78615 0.868095
4149.76 0.591304 0.602979 7.79689 0.868092
4150.1 0.58866 0.602842 7.81446 0.868086
4150.44 0.587563 0.602264 7.83299 0.868077
4150.78 0.588779 0.601355 7.84182 0.868065
4151.12 0.592196 0.600249 7.81871 0.86805
4151.46 0.59591 0.599058 7.79571 0.868032
4151.8 0.597898 0.597857 7.78351 0.868011
4152.14 0.597695 0.596672 7.77898 0.867988
4152.48 0.596085 0.595507 7.77445 0.867962
4152.82 0.593858 0.594379 7.79077 0.867934
4153.16 0.591643 0.593332 7.80861 0.867903
4153.5 0.590022 0.592439 7.82076 0.86787
4153.84 0.589436 0.591776 7.81854 0.867835
4154.18 0.590081 0.591392 7.81632 0.867798
4154.52 0.592089 0.591303 7.80216 0.867759
4154.86 0.595105 0.591513 7.78127 0.867718
4155.2 0.598434 0.592035 7.76046 0.867675
4155.54 0.601419 0.592893 7.74733 0.867631
4155.88 0.603607 0.594133 7.73431 0.867585
4156.22 0.604598 0.595792 7.72772 0.867537
4156.56 0.604413 0.597876 7.73341 0.867488
4156.9 0.603699 0.600362 7.7391 0.867438
4157.24 0.603157 0.603216 7.74195 0.867387
4157.58 0.603491 0.6064 7.74356 0.867335
4157.92 0.605404 0.609884 7.74248 0.867281
4158.26 0.609224 0.613654 7.69117 0.867227
4158.6 0.61398 0.617677 7.64035 0.867172
4158.94 0.618443 0.621887 7.59525 0.867117
4159.28 0.622138 0.626195 7.55814 0.867061
4159.62 0.625556 0.630493 7.52129 0.867004
4159.96 0.629179 0.634678 7.48873 0.866947
4160.3 0.632876 0.638662 7.45763 0.86689
4160.64 0.636211 0.642388 7.42773 0.866832
4160.98 0.63886 0.645796 7.40561 0.866775
4161.32 0.640832 0.648815 7.38358 0.866718
4161.66 0.642201 0.651358 7.36253 0.86666
4162.0 0.64319 0.653341 7.34252 0.866603
4162.34 0.644182 0.654715 7.3226 0.866546
4162.68 0.64551 0.655467 7.3018 0.86649
4163.02 0.647121 0.655642 7.28089 0.866434
4163.36 0.648797 0.655328 7.26195 0.866379
4163.7 0.650211 0.65462 7.25121 0.866325
4164.05 0.650776 0.653582 7.2405 0.866271
4164.39 0.649898 0.652241 7.24882 0.866218
4164.73 0.647566 0.650601 7.27307 0.866167
4165.07 0.64428 0.64866 7.29745 0.866116
4165.41 0.640552 0.64643 7.33918 0.866067
4165.75 0.63685 0.643968 7.38313 0.866019
4166.09 0.633623 0.641366 7.42282 0.865972
4166.43 0.631102 0.63873 7.44978 0.865927
4166.77 0.629106 0.636137 7.47689 0.865884
4167.11 0.627403 0.633609 7.508 0.865842
4167.45 0.625692 0.631111 7.54165 0.865802
4167.79 0.623623 0.628581 7.57553 0.865764
4168.14 0.620946 0.625962 7.61172 0.865728
4168.48 0.617852 0.623223 7.64821 0.865695
4168.82 0.614644 0.620374 7.68482 0.865663
4169.16 0.611598 0.61746 7.7214 0.865634
4169.5 0.60895 0.61452 7.75824 0.865607
4169.84 0.606895 0.611566 7.79356 0.865583
4170.18 0.605254 0.608581 7.82837 0.865561
4170.52 0.603631 0.60554 7.86282 0.865542
4170.86 0.601698 0.602437 7.88943 0.865526
4171.21 0.599364 0.599296 7.91618 0.865513
4171.55 0.596588 0.596179 7.94063 0.865502
4171.89 0.593498 0.593158 7.96194 0.865495
4172.23 0.590425 0.590299 7.98334 0.865491
4172.57 0.587671 0.58763 8.01469 0.865491
4172.91 0.585246 0.585149 8.04879 0.865494
4173.25 0.583029 0.582848 8.08374 0.8655
4173.6 0.581012 0.580743 8.12235 0.86551
4173.94 0.579485 0.578893 8.16125 0.865524
4174.28 0.57877 0.577396 8.17845 0.865541
4174.62 0.57897 0.57636 8.17564 0.865563
4174.96 0.579976 0.575867 8.17284 0.865588
4175.3 0.581622 0.575952 8.14895 0.865618
4175.64 0.583467 0.576576 8.12251 0.865652
4175.99 0.584972 0.57764 8.10089 0.86569
4176.33 0.58578 0.579026 8.09315 0.865732
4176.67 0.585874 0.580626 8.08542 0.865779
4177.01 0.585311 0.582347 8.09128 0.865831
4177.35 0.584622 0.584124 8.10553 0.865887
4177.7 0.58468 0.585932 8.11982 0.865948
4178.04 0.586134 0.587761 8.10186 0.866014
4178.38 0.588646 0.58959 8.08351 0.866085
4178.72 0.591627 0.591398 8.06379 0.866162
4179.06 0.594648 0.593166 8.04152 0.866243
4179.4 0.597522 0.594872 8.01933 0.86633
4179.75 0.600086 0.596504 8.00244 0.866422
4180.09 0.602255 0.598084 7.98761 0.866519
4180.43 0.603982 0.599666 7.97346 0.866623
4180.77 0.60525 0.601304 7.96588 0.866732
4181.11 0.606117 0.603034 7.95831 0.866846
4181.46 0.60666 0.60485 7.95284 0.866967
4181.8 0.606982 0.606702 7.94987 0.867094
4182.14 0.607215 0.6085 7.94689 0.867226
4182.48 0.607504 0.610154 7.94088 0.867364
4182.83 0.608031 0.611607 7.93425 0.867508
4183.17 0.609001 0.612844 7.92384 0.867657
4183.51 0.610642 0.613878 7.89815 0.867812
4183.85 0.613243 0.614724 7.87258 0.867972
4184.19 0.617053 0.61538 7.84079 0.868138
4184.54 0.621513 0.61584 7.80442 0.868309
4184.88 0.625388 0.616108 7.7683 0.868485
4185.22 0.627695 0.616215 7.74486 0.868666
4185.56 0.628757 0.616234 7.72233 0.868852
4185.91 0.629284 0.616269 7.70709 0.869043
4186.25 0.629716 0.616413 7.70781 0.869238
4186.59 0.630048 0.616704 7.70852 0.869439
4186.93 0.630234 0.617124 7.71538 0.869644
4187.28 0.630218 0.617609 7.72508 0.869854
4187.62 0.629936 0.618084 7.73481 0.870068
4187.96 0.629379 0.618516 7.74464 0.870286
4188.3 0.628709 0.618936 7.75448 0.870509
4188.65 0.628125 0.619437 7.76428 0.870736
4188.99 0.627716 0.620136 7.77399 0.870967
4189.33 0.627446 0.62114 7.78373 0.871203
4189.68 0.627277 0.622509 7.79429 0.871442
4190.02 0.627217 0.624238 7.80508 0.871685
4190.36 0.627296 0.626261 7.81444 0.871932
4190.7 0.627568 0.628457 7.81717 0.872183
4191.05 0.628146 0.63067 7.8199 0.872437
4191.39 0.629142 0.63273 7.81681 0.872695
4191.73 0.63045 0.634473 7.80904 0.872956
4192.08 0.631781 0.635765 7.80129 0.873221
4192.42 0.632819 0.636516 7.80876 0.873489
4192.76 0.63317 0.636686 7.81739 0.87376
4193.1 0.632418 0.636273 7.82906 0.874034
4193.45 0.630404 0.635293 7.84767 0.874312
4193.79 0.627399 0.633769 7.86634 0.874592
4194.13 0.623729 0.631724 7.89056 0.874875
4194.48 0.619854 0.629188 7.91746 0.875161
4194.82 0.61632 0.626218 7.9451 0.87545
4195.16 0.613518 0.62288 7.9823 0.875741
4195.51 0.611325 0.619252 8.01978 0.876035
4195.85 0.609517 0.615405 8.05096 0.876331
4196.19 0.607971 0.611394 8.07389 0.87663
4196.54 0.606687 0.607265 8.09692 0.876931
4196.88 0.605622 0.603074 8.109 0.877234
4197.22 0.604376 0.598918 8.11864 0.87754
4197.57 0.602396 0.594933 8.13443 0.877847
4197.91 0.599416 0.591277 8.17562 0.878156
4198.25 0.595817 0.58809 8.21713 0.878467
4198.6 0.592075 0.585463 8.2606 0.87878
4198.94 0.588781 0.583425 8.30564 0.879095
4199.28 0.586616 0.581958 8.35106 0.879411
4199.63 0.586118 0.581023 8.36476 0.879729
4199.97 0.587144 0.580613 8.37701 0.880048
4200.32 0.589358 0.580782 8.37406 0.880369
4200.66 0.592355 0.581611 8.34122 0.88069
4201.0 0.595625 0.583178 8.30857 0.881013
4201.35 0.598731 0.585525 8.25973 0.881338
4201.69 0.602049 0.58862 8.20495 0.881663
4202.03 0.606408 0.592343 8.15126 0.881989
4202.38 0.611977 0.596545 8.10292 0.882316
4202.72 0.616926 0.601092 8.055 0.882643
4203.07 0.619147 0.605892 8.03799 0.882972
4203.41 0.618759 0.610909 8.05383 0.883301
4203.75 0.618215 0.616153 8.06972 0.88363
4204.1 0.61972 0.621622 8.03564 0.88396
4204.44 0.623303 0.627268 7.99407 0.884291
4204.79 0.628184 0.633007 7.95188 0.884621
4205.13 0.633641 0.638724 7.90723 0.884952
4205.47 0.639067 0.644302 7.86294 0.885283
4205.82 0.643912 0.649656 7.8219 0.885614
4206.16 0.648183 0.654752 7.78284 0.885944
